SpectraSuite Data File
++++++++++++++++++++++++++++++++++++
Date: Wed Jan 05 13:57:34 EET 2022
User: optika
Dark Spectrum Present: Yes
Reference Spectrum Present: No
Number of Sampled Component Spectra: 1
Spectrometers: USB4H03366
Integration Time (usec): 2000 (USB4H03366)
Spectra Averaged: 1 (USB4H03366)
Boxcar Smoothing: 0 (USB4H03366)
Correct for Electrical Dark: No (USB4H03366)
Strobe/Lamp Enabled: No (USB4H03366)
Correct for Detector Non-linearity: No (USB4H03366)
Correct for Stray Light: No (USB4H03366)
Number of Pixels in Processed Spectrum: 3648
>>>>>Begin Processed Spectral Data<<<<<
291.48	-45.06
291.93	-45.06
292.37	-45.06
292.82	34.82
293.26	-12.29
293.70	4.10
294.15	14.34
294.59	75.77
295.04	53.25
295.48	-16.38
295.93	26.62
296.37	-26.62
296.82	40.96
297.26	18.43
297.71	-40.96
298.15	-108.54
298.59	34.82
299.04	-53.25
299.48	-47.10
299.93	69.63
300.37	-26.62
300.82	20.48
301.26	55.30
301.70	-28.67
302.15	26.62
302.59	40.96
303.04	-61.44
303.48	-51.20
303.92	-53.25
304.37	32.77
304.81	53.25
305.26	-14.34
305.70	6.14
306.14	47.10
306.59	-98.30
307.03	36.86
307.47	34.82
307.92	81.92
308.36	24.58
308.81	-51.20
309.25	-32.77
309.69	-63.49
310.14	36.86
310.58	22.53
311.02	45.06
311.47	90.11
311.91	61.44
312.36	-83.97
312.80	6.14
313.24	30.72
313.69	-10.24
314.13	-106.49
314.57	-30.72
315.02	-28.67
315.46	49.15
315.90	22.53
316.35	18.43
316.79	-6.14
317.23	-2.05
317.68	30.72
318.12	-22.53
318.56	-38.91
319.00	-69.63
319.45	-69.63
319.89	38.91
320.33	0.00
320.78	-4.10
321.22	20.48
321.66	-55.30
322.11	45.06
322.55	-26.62
322.99	49.15
323.43	-90.11
323.88	-45.06
324.32	6.14
324.76	-63.49
325.21	22.53
325.65	38.91
326.09	-12.29
326.53	2.05
326.98	-20.48
327.42	0.00
327.86	22.53
328.30	32.77
328.75	-79.87
329.19	43.01
329.63	-4.10
330.07	-73.73
330.52	20.48
330.96	8.19
331.40	-8.19
331.84	-34.82
332.29	-8.19
332.73	28.67
333.17	18.43
333.61	28.67
334.05	-12.29
334.50	-53.25
334.94	2.05
335.38	18.43
335.82	-61.44
336.27	22.53
336.71	-4.10
337.15	-8.19
337.59	45.06
338.03	-20.48
338.47	22.53
338.92	67.58
339.36	57.34
339.80	-24.58
340.24	83.97
340.68	38.91
341.13	92.16
341.57	-30.72
342.01	20.48
342.45	8.19
342.89	-43.01
343.33	-26.62
343.78	-18.43
344.22	8.19
344.66	-69.63
345.10	20.48
345.54	30.72
345.98	6.14
346.43	8.19
346.87	-6.14
347.31	69.63
347.75	-43.01
348.19	-65.53
348.63	38.91
349.07	4.10
349.51	-43.01
349.96	-12.29
350.40	-40.96
350.84	24.58
351.28	14.34
351.72	24.58
352.16	67.58
352.60	-53.25
353.04	-88.06
353.49	57.34
353.93	28.67
354.37	59.39
354.81	-8.19
355.25	0.00
355.69	-24.58
356.13	86.01
356.57	-26.62
357.01	8.19
357.45	0.00
357.89	-51.20
358.33	30.72
358.78	-8.19
359.22	-30.72
359.66	-20.48
360.10	18.43
360.54	-24.58
360.98	47.10
361.42	-6.14
361.86	4.10
362.30	12.29
362.74	79.87
363.18	-77.82
363.62	-8.19
364.06	-92.16
364.50	20.48
364.94	129.02
365.38	59.39
365.82	-32.77
366.26	-22.53
366.70	-2.05
367.14	4.10
367.58	-32.77
368.02	-6.14
368.46	10.24
368.90	14.34
369.34	-28.67
369.78	38.91
370.22	-6.14
370.66	86.01
371.10	106.49
371.54	20.48
371.98	-18.43
372.42	-51.20
372.86	6.14
373.30	28.67
373.74	-38.91
374.18	-43.01
374.62	73.73
375.06	-116.73
375.50	-12.29
375.94	8.19
376.38	6.14
376.82	-26.62
377.26	77.82
377.70	-45.06
378.14	94.21
378.58	45.06
379.02	-12.29
379.46	-40.96
379.90	-26.62
380.34	110.59
380.78	83.97
381.22	47.10
381.66	-16.38
382.10	-40.96
382.53	114.69
382.97	-34.82
383.41	45.06
383.85	159.74
384.29	6.14
384.73	-10.24
385.17	145.41
385.61	43.01
386.05	14.34
386.49	6.14
386.93	55.30
387.36	2.05
387.80	4.10
388.24	38.91
388.68	-4.10
389.12	-10.24
389.56	38.91
390.00	40.96
390.44	-14.34
390.88	0.00
391.31	12.29
391.75	69.63
392.19	-2.05
392.63	69.63
393.07	-49.15
393.51	20.48
393.95	61.44
394.39	-45.06
394.82	-2.05
395.26	28.67
395.70	40.96
396.14	6.14
396.58	65.53
397.02	53.25
397.45	-40.96
397.89	16.38
398.33	24.58
398.77	30.72
399.21	-110.59
399.65	-73.73
400.08	96.25
400.52	59.39
400.96	40.96
401.40	28.67
401.84	2.05
402.27	-47.10
402.71	-32.77
403.15	100.35
403.59	28.67
404.03	24.58
404.46	-28.67
404.90	32.77
405.34	26.62
405.78	-32.77
406.22	14.34
406.65	8.19
407.09	63.49
407.53	12.29
407.97	12.29
408.40	-12.29
408.84	-24.58
409.28	24.58
409.72	88.06
410.16	-6.14
410.59	98.30
411.03	20.48
411.47	92.16
411.91	86.01
412.34	40.96
412.78	43.01
413.22	-18.43
413.66	-4.10
414.09	0.00
414.53	120.83
414.97	18.43
415.40	-6.14
415.84	53.25
416.28	-4.10
416.72	47.10
417.15	94.21
417.59	-36.86
418.03	145.41
418.46	43.01
418.90	133.12
419.34	100.35
419.78	122.88
420.21	-28.67
420.65	102.40
421.09	102.40
421.52	69.63
421.96	94.21
422.40	102.40
422.83	63.49
423.27	120.83
423.71	63.49
424.14	100.35
424.58	57.34
425.02	90.11
425.45	65.54
425.89	53.25
426.33	81.92
426.76	116.73
427.20	186.37
427.64	188.41
428.07	14.34
428.51	186.37
428.95	98.30
429.38	167.93
429.82	53.25
430.26	57.34
430.69	161.79
431.13	102.40
431.57	135.17
432.00	172.03
432.44	116.73
432.87	137.21
433.31	100.35
433.75	229.37
434.18	120.83
434.62	112.64
435.05	112.64
435.49	169.98
435.93	239.61
436.36	106.49
436.80	210.94
437.23	165.89
437.67	229.37
438.11	223.23
438.54	186.37
438.98	153.60
439.41	186.37
439.85	202.75
440.29	178.17
440.72	286.72
441.16	249.85
441.59	272.38
442.03	221.18
442.46	294.91
442.90	372.73
443.34	309.24
443.77	280.57
444.21	251.90
444.64	233.47
445.08	356.35
445.51	282.62
445.95	389.11
446.38	385.02
446.82	296.96
447.25	423.93
447.69	299.00
448.13	344.06
448.56	356.35
449.00	413.69
449.43	518.14
449.87	350.20
450.30	587.77
450.74	477.18
451.17	524.28
451.61	430.07
452.04	550.90
452.48	505.85
452.91	550.90
453.35	581.62
453.78	579.58
454.22	567.29
454.65	595.96
455.09	591.86
455.52	753.65
455.96	757.75
456.39	583.67
456.83	761.84
457.26	692.21
457.69	782.32
458.13	780.28
458.56	849.91
459.00	1038.32
459.43	794.61
459.87	1032.18
460.30	1044.46
460.74	1118.19
461.17	1062.90
461.61	1232.88
462.04	1116.14
462.47	1302.51
462.91	1214.45
463.34	1398.76
463.78	1359.85
464.21	1499.11
464.65	1437.67
465.08	1578.98
465.51	1740.77
465.95	1701.86
466.38	1722.34
466.82	1851.36
467.25	1923.04
467.69	2002.91
468.12	2191.33
468.55	2088.93
468.99	2209.76
469.42	2303.96
469.86	2392.03
470.29	2432.99
470.72	2648.02
471.16	2410.46
471.59	2426.84
472.03	2842.58
472.46	2682.84
472.89	2832.34
473.33	2969.55
473.76	3266.51
474.19	3352.52
474.63	3200.98
475.06	3282.89
475.49	3598.28
475.93	3504.07
476.36	3901.38
476.80	3889.09
477.23	4237.25
477.66	3936.20
478.10	4143.04
478.53	4196.29
478.96	4650.94
479.40	4681.66
479.83	4749.24
480.26	4566.97
480.70	4919.22
481.13	4999.09
481.56	5312.43
482.00	5337.01
482.43	5412.78
482.86	5525.42
483.30	5539.76
483.73	5748.65
484.16	5978.02
484.59	6027.17
485.03	6148.00
485.46	6401.95
485.89	6221.73
486.33	6352.80
486.76	6608.80
487.19	6369.18
487.63	6625.18
488.06	6887.32
488.49	7143.32
488.92	7171.99
489.36	7274.38
489.79	7176.08
490.22	7448.46
490.65	7354.26
491.09	7813.00
491.52	7518.09
491.95	8171.40
492.38	7778.19
492.82	8341.38
493.25	8269.70
493.68	8226.69
494.11	8273.79
494.55	8501.12
494.98	8691.58
495.41	8570.75
495.84	8734.59
496.28	9013.11
496.71	8787.83
497.14	9056.12
497.57	9025.40
498.01	9002.87
498.44	9377.65
498.87	9705.32
499.30	9586.54
499.73	9574.25
500.17	9400.18
500.60	9889.64
501.03	10026.86
501.46	9916.26
501.89	10127.21
502.33	10258.28
502.76	9910.12
503.19	10800.99
503.62	10823.51
504.05	10766.17
504.49	10422.11
504.92	10645.34
505.35	11069.27
505.78	11208.53
506.21	11468.62
506.64	11374.42
507.08	11345.75
507.51	11685.71
507.94	11659.09
508.37	11720.53
508.80	11892.55
509.23	11818.83
509.67	11933.51
510.10	12543.81
510.53	12400.45
510.96	12537.66
511.39	12574.53
511.82	12547.90
512.25	12672.83
512.69	12855.10
513.12	12844.86
513.55	13152.06
513.98	13051.70
514.41	13471.54
514.84	13199.16
515.27	13322.04
515.70	13270.84
516.14	13494.07
516.57	13348.66
517.00	13692.72
517.43	14061.35
517.86	14405.41
518.29	14030.63
518.72	14118.70
519.15	14360.36
519.58	14530.34
520.01	14473.00
520.45	14421.80
520.88	14604.07
521.31	14700.32
521.74	14675.74
522.17	15152.92
522.60	15343.38
523.03	15634.19
523.46	15265.56
523.89	15703.82
524.32	15417.11
524.75	16142.09
525.18	15863.57
525.61	16211.72
526.04	15806.22
526.47	16301.83
526.90	16019.21
527.33	16236.30
527.77	16109.32
528.20	16561.92
528.63	16348.93
529.06	16531.20
529.49	16277.26
529.92	16891.65
530.35	16692.99
530.78	17204.99
531.21	17225.47
531.64	17155.83
532.07	16977.66
532.50	17440.50
532.93	17510.13
533.36	17655.54
533.79	17606.39
534.22	17893.10
534.65	18085.61
535.08	18216.68
535.51	17768.18
535.94	17903.34
536.37	17436.41
536.80	18489.06
537.23	18624.23
537.66	18175.72
538.09	18183.91
538.52	18317.03
538.95	18433.77
539.38	18603.75
539.81	18831.07
540.24	18910.94
540.66	18546.40
541.09	19093.21
541.52	18753.25
541.95	19007.20
542.38	19222.23
542.81	19128.03
543.24	19146.46
543.67	19203.80
544.10	19117.79
544.53	19275.48
544.96	19140.32
545.39	19791.57
545.82	19447.51
546.25	19519.19
546.68	19822.29
547.11	19752.66
547.53	20123.34
547.96	20088.53
548.39	19971.79
548.82	20033.23
549.25	20223.69
549.68	20127.44
550.11	20235.98
550.54	20688.58
550.97	20362.95
551.40	20717.25
551.82	20795.07
552.25	20645.57
552.68	20317.90
553.11	21012.16
553.54	20821.70
553.97	21065.41
554.40	21360.31
554.83	21585.59
555.26	21606.07
555.68	21468.86
556.11	21587.64
556.54	21833.39
556.97	21571.25
557.40	22240.94
557.83	21954.22
558.26	21890.74
558.68	21888.69
559.11	22677.16
559.54	22458.03
559.97	22679.21
560.40	22255.28
560.83	22965.92
561.25	22861.48
561.68	23107.23
562.11	22982.31
562.54	22832.80
562.97	22902.43
563.40	23424.67
563.82	23295.64
564.25	23774.87
564.68	23436.95
565.11	23643.80
565.54	23389.85
565.96	24108.69
566.39	23586.46
566.82	24501.90
567.25	24123.02
567.68	24714.89
568.10	24374.92
568.53	24809.09
568.96	24549.00
569.39	24686.22
569.81	24325.77
570.24	24848.00
570.67	24944.26
571.10	24665.74
571.53	24848.00
571.95	25171.58
572.38	24966.79
572.81	25665.14
573.24	25325.18
573.66	25607.80
574.09	25511.55
574.52	25839.22
574.95	25212.54
575.37	26031.73
575.80	25640.57
576.23	26396.27
576.66	26199.66
577.08	25996.92
577.51	25986.68
577.94	26416.75
578.36	26050.16
578.79	26314.35
579.22	26478.19
579.65	26115.70
580.07	26605.16
580.50	26744.42
580.93	26431.08
581.36	26558.06
581.78	27149.92
582.21	26984.04
582.64	26582.63
583.06	26855.01
583.49	26812.01
583.92	26818.15
584.34	27047.52
584.77	27164.26
585.20	26988.13
585.62	27332.19
586.05	26859.11
586.48	27571.80
586.90	27569.76
587.33	27065.96
587.76	27766.36
588.18	27772.50
588.61	27418.21
589.04	28096.08
589.46	27303.52
589.89	27866.71
590.32	27571.80
590.74	28108.37
591.17	28438.09
591.60	28065.36
592.02	28091.99
592.45	28280.40
592.88	27723.35
593.30	28151.38
593.73	28755.53
594.15	28434.00
594.58	28081.75
595.01	28626.51
595.43	27985.49
595.86	28999.24
596.29	28915.27
596.71	28685.90
597.14	28939.85
597.56	29308.48
597.99	29378.11
598.42	28702.28
598.84	29388.35
599.27	29210.18
599.69	29247.04
600.12	29498.94
600.55	29861.43
600.97	29470.27
601.40	29447.74
601.82	30045.75
602.25	29728.31
602.67	29777.47
603.10	29820.47
603.53	29896.25
603.95	30422.58
604.38	30744.11
604.80	30246.45
605.23	30111.28
605.65	30664.24
606.08	31108.65
606.50	30762.54
606.93	30817.83
607.36	30582.32
607.78	31030.82
608.21	31292.96
608.63	31221.28
609.06	31313.44
609.48	31317.54
609.91	31450.66
610.33	31211.04
610.76	31192.61
611.18	31534.62
611.61	31186.47
612.03	31708.70
612.46	31708.70
612.88	31940.12
613.31	31428.13
613.73	31706.65
614.16	31729.18
614.58	31766.04
615.01	31575.58
615.43	32335.38
615.86	32222.74
616.28	32007.70
616.71	31983.13
617.13	32337.43
617.56	31917.59
617.98	32364.05
618.41	32222.74
618.83	32454.16
619.26	31985.18
619.68	32658.96
620.11	32448.02
620.53	32699.92
620.96	32542.22
621.38	32540.18
621.81	32456.21
622.23	32742.92
622.65	32312.85
623.08	33238.53
623.50	32833.03
623.93	32597.52
624.35	32609.81
624.78	33025.54
625.20	32615.95
625.62	32974.34
626.05	32931.34
626.47	33363.46
626.90	32894.47
627.32	33220.10
627.75	32480.78
628.17	33250.82
628.59	33250.82
629.02	33312.26
629.44	33646.08
629.87	32882.19
630.29	33306.12
630.71	33379.84
631.14	33383.94
631.56	33842.68
631.99	33222.15
632.41	33932.79
632.83	33273.35
633.26	33428.99
633.68	33424.90
634.11	33467.91
634.53	33730.05
634.95	33857.02
635.38	33785.34
635.80	33666.56
636.22	33181.19
636.65	33990.14
637.07	33953.27
637.49	33568.26
637.92	33762.81
638.34	34203.13
638.76	33601.02
639.19	33830.40
639.61	33652.22
640.04	34266.61
640.46	34375.16
640.88	34354.68
641.31	34545.14
641.73	34407.92
642.15	33912.31
642.57	34653.68
643.00	34164.21
643.42	34502.13
643.84	34565.62
644.27	34786.80
644.69	34225.65
645.11	34725.36
645.54	34471.41
645.96	34377.20
646.38	34903.53
646.81	34848.24
647.23	34622.96
647.65	34395.64
648.07	34850.28
648.50	34663.92
648.92	34594.29
649.34	34661.87
649.77	34678.25
650.19	34688.49
650.61	34385.40
651.03	34973.16
651.46	34569.71
651.88	34135.54
652.30	34852.33
652.72	34924.01
653.15	35048.94
653.57	34772.46
653.99	35270.12
654.41	35050.99
654.84	34770.41
655.26	34838.00
655.68	35278.31
656.10	35268.07
656.53	35108.33
656.95	35223.01
657.37	34809.32
657.79	34893.29
658.22	35034.60
658.64	35235.30
659.06	34846.19
659.48	35212.77
659.90	34924.01
660.33	35077.61
660.75	34999.79
661.17	35036.65
661.59	34876.91
662.02	34901.48
662.44	34663.92
662.86	34825.71
663.28	34278.90
663.70	35010.03
664.12	34788.85
664.55	34819.56
664.97	34190.84
665.39	35061.22
665.81	34747.89
666.23	34917.87
666.66	34565.62
667.08	35126.76
667.50	34432.50
667.92	35290.60
668.34	34670.06
668.76	34928.11
669.19	34086.39
669.61	34874.86
670.03	35040.75
670.45	35286.50
670.87	34719.21
671.29	34909.68
671.71	34440.69
672.14	34907.63
672.56	34158.07
672.98	34510.32
673.40	35114.47
673.82	34844.14
674.24	34739.69
674.66	35016.17
675.08	34876.91
675.51	34977.26
675.93	35081.70
676.35	34825.71
676.77	34420.21
677.19	34559.47
677.61	34842.09
678.03	35145.19
678.45	34813.42
678.87	34430.45
679.29	34258.42
679.72	34770.41
680.14	34690.54
680.56	34831.85
680.98	34528.75
681.40	34260.47
681.82	34280.95
682.24	34203.13
682.66	34258.42
683.08	34538.99
683.50	34354.68
683.92	34440.69
684.34	33957.37
684.76	34457.07
685.18	34745.84
685.61	34620.91
686.03	33969.66
686.45	34176.50
686.87	34012.66
687.29	34889.20
687.71	34153.97
688.13	34227.70
688.55	33863.16
688.97	34614.77
689.39	34715.12
689.81	34387.44
690.23	34029.05
690.65	34256.37
691.07	34137.59
691.49	33916.41
691.91	33914.36
692.33	33971.71
692.75	33670.65
693.17	34203.13
693.59	33492.48
694.01	34231.80
694.43	33920.51
694.85	34016.76
695.27	33760.76
695.69	33627.65
696.11	33701.37
696.53	33496.58
696.95	33531.39
697.37	33873.40
697.79	33332.74
698.21	33240.58
698.63	33336.84
699.05	33553.92
699.47	32978.44
699.89	33607.17
700.31	32771.60
700.73	33324.55
701.15	33216.01
701.57	33564.16
701.98	33367.55
702.40	33295.88
702.82	33017.35
703.24	33609.22
703.66	33181.19
704.08	33711.61
704.50	32597.52
704.92	32890.38
705.34	32343.57
705.76	32695.82
706.18	32941.58
706.60	33074.70
707.02	33039.88
707.44	33453.57
707.85	32691.73
708.27	32984.58
708.69	32994.82
709.11	33111.56
709.53	32837.13
709.95	32310.80
710.37	32624.14
710.79	32669.20
711.21	32108.05
711.63	31692.32
712.04	31663.64
712.46	32273.94
712.88	32050.71
713.30	32402.96
713.72	31772.19
714.14	31645.21
714.56	32142.87
714.98	31964.70
715.39	31307.30
715.81	31843.87
716.23	31245.86
716.65	31385.12
717.07	31227.43
717.49	30987.82
717.91	31057.45
718.32	30991.91
718.74	30438.96
719.16	30740.01
719.58	29806.14
720.00	30207.54
720.42	29761.08
720.83	30420.53
721.25	29822.52
721.67	29128.26
722.09	29271.62
722.51	29247.04
722.93	29140.55
723.34	29150.79
723.76	29218.37
724.18	28919.37
724.60	29134.40
725.02	29253.19
725.43	28862.02
725.85	29060.68
726.27	28450.38
726.69	28286.54
727.11	28018.26
727.52	28712.52
727.94	28231.25
728.36	28765.77
728.78	28321.36
729.19	28470.86
729.61	28474.96
730.03	28456.53
730.45	28423.76
730.87	28522.06
731.28	28579.40
731.70	28360.27
732.12	28417.61
732.54	28483.15
732.95	28110.42
733.37	28237.39
733.79	28339.79
734.21	28569.16
734.62	28280.40
735.04	28575.31
735.46	28276.30
735.87	28522.06
736.29	28450.38
736.71	28927.56
737.13	28722.76
737.54	28845.64
737.96	28829.26
738.38	28415.57
738.80	28425.81
739.21	28995.14
739.63	28419.66
740.05	28845.64
740.46	28915.27
740.88	28368.46
741.30	28577.36
741.71	28315.22
742.13	28098.13
742.55	28307.02
742.97	28122.71
743.38	27958.87
743.80	28161.62
744.22	27739.74
744.63	27711.07
745.05	28094.04
745.47	27811.42
745.88	27942.49
746.30	27668.06
746.72	27952.73
747.13	27057.76
747.55	27475.55
747.97	27313.76
748.38	27133.54
748.80	27029.09
749.22	27893.33
749.63	27211.36
750.05	27422.30
750.46	27129.44
750.88	27229.79
751.30	26680.94
751.71	27053.67
752.13	26859.11
752.55	26535.53
752.96	26754.66
753.38	26771.05
753.79	26361.45
754.21	26394.22
754.63	26453.61
755.04	26693.22
755.46	26437.23
755.88	26238.58
756.29	26123.89
756.71	26320.49
757.12	25984.63
757.54	25841.27
757.96	26074.74
758.37	25851.51
758.79	25861.75
759.20	25681.53
759.62	25933.43
760.03	25589.37
760.45	25095.81
760.87	26029.68
761.28	25491.07
761.70	25286.27
762.11	25366.14
762.53	25579.13
762.94	25329.28
763.36	25386.62
763.78	25235.07
764.19	25376.38
764.61	25013.89
765.02	25177.73
765.44	24999.55
765.85	25306.75
766.27	25413.24
766.68	25296.51
767.10	24788.61
767.51	24987.27
767.93	24997.51
768.34	25214.59
768.76	24964.74
769.18	24505.99
769.59	25134.72
770.01	25190.02
770.42	25005.70
770.84	25099.91
771.25	24577.67
771.67	24411.79
772.08	24477.32
772.50	24493.71
772.91	24137.36
773.33	24592.01
773.74	24323.72
774.16	23891.60
774.57	23963.28
774.99	23983.76
775.40	23897.75
775.81	24051.34
776.23	23662.23
776.64	23543.45
777.06	23991.95
777.47	23453.34
777.89	23402.14
778.30	23207.58
778.72	23293.60
779.13	23527.06
779.55	23049.89
779.96	23060.13
780.38	22783.65
780.79	22728.36
781.20	22515.37
781.62	22617.77
782.03	22752.93
782.45	22394.54
782.86	22275.76
783.28	22318.76
783.69	22361.77
784.10	22335.15
784.52	21593.78
784.93	22226.60
785.35	21767.86
785.76	22087.34
786.18	22101.68
786.59	22032.05
787.00	21655.22
787.42	22009.52
787.83	21950.13
788.25	21644.98
788.66	21413.56
789.07	21597.88
789.49	21257.92
789.90	21728.95
790.32	21241.53
790.73	21106.37
791.14	21001.92
791.56	21219.00
791.97	20913.86
792.38	21069.50
792.80	20623.05
793.21	20864.71
793.62	20520.65
794.04	20764.36
794.45	20481.74
794.87	20592.33
795.28	20473.54
795.69	20684.48
796.11	20272.84
796.52	20432.58
796.93	20215.50
797.35	20444.87
797.76	20082.38
798.17	19816.15
798.59	19900.11
799.00	19857.11
799.41	19777.23
799.83	19529.43
800.24	19211.99
800.65	19263.19
801.07	19201.76
801.48	19168.99
801.89	18996.96
802.31	19390.17
802.72	19240.67
803.13	19039.97
803.54	18800.35
803.96	18867.94
804.37	18661.09
804.78	19039.97
805.20	18849.50
805.61	18587.36
806.02	18548.45
806.43	18745.06
806.85	18544.36
807.26	18757.35
807.67	18544.36
808.09	18745.06
808.50	18700.00
808.91	18165.48
809.32	18206.44
809.74	18781.92
810.15	18261.74
810.56	18058.99
810.97	17751.79
811.39	18112.24
811.80	17792.75
812.21	18013.93
812.62	17946.35
813.04	18118.38
813.45	17288.95
813.86	17676.02
814.27	17567.48
814.68	17422.07
815.10	17405.69
815.51	17178.36
815.92	17309.43
816.33	17098.49
816.75	17096.44
817.16	17438.45
817.57	16787.20
817.98	17098.49
818.39	17037.05
818.81	17125.11
819.22	16514.82
819.63	16725.76
820.04	16633.60
820.45	16934.65
820.87	16705.28
821.28	16172.81
821.69	16729.86
822.10	16305.93
822.51	16523.01
822.92	16568.07
823.34	16158.47
823.75	16221.96
824.16	15802.13
824.57	16115.47
824.98	15744.78
825.39	15927.05
825.81	15656.72
826.22	15351.57
826.63	15638.29
827.04	15636.24
827.45	15765.26
827.86	15605.52
828.28	15310.61
828.69	15402.77
829.10	15370.01
829.51	15396.63
829.92	14909.21
830.33	14921.50
830.74	14622.50
831.15	15097.63
831.57	14837.53
831.98	14837.53
832.39	14573.35
832.80	14364.45
833.21	14708.51
833.62	14663.46
834.03	13967.15
834.44	14102.31
834.85	13946.67
835.26	14067.50
835.68	14102.31
836.09	14145.32
836.50	13989.67
836.91	14401.32
837.32	13928.24
837.73	14108.46
838.14	13981.48
838.55	13516.59
