SpectraSuite Data File
++++++++++++++++++++++++++++++++++++
Date: Wed Jan 05 13:53:57 EET 2022
User: optika
Dark Spectrum Present: Yes
Reference Spectrum Present: No
Number of Sampled Component Spectra: 1
Spectrometers: USB4H03366
Integration Time (usec): 2000 (USB4H03366)
Spectra Averaged: 1 (USB4H03366)
Boxcar Smoothing: 0 (USB4H03366)
Correct for Electrical Dark: No (USB4H03366)
Strobe/Lamp Enabled: No (USB4H03366)
Correct for Detector Non-linearity: No (USB4H03366)
Correct for Stray Light: No (USB4H03366)
Number of Pixels in Processed Spectrum: 3648
>>>>>Begin Processed Spectral Data<<<<<
291.48	-20.48
291.93	-20.48
292.37	-20.48
292.82	90.11
293.26	26.62
293.70	96.25
294.15	-34.82
294.59	12.29
295.04	-32.77
295.48	-57.34
295.93	-4.10
296.37	-16.38
296.82	8.19
297.26	63.49
297.71	24.58
298.15	-59.39
298.59	24.58
299.04	-75.77
299.48	-10.24
299.93	75.77
300.37	-40.96
300.82	-34.82
301.26	104.45
301.70	67.58
302.15	-45.06
302.59	30.72
303.04	-65.54
303.48	-22.53
303.92	53.25
304.37	-10.24
304.81	14.34
305.26	-10.24
305.70	36.86
306.14	86.01
306.59	-53.25
307.03	38.91
307.47	38.91
307.92	49.15
308.36	14.34
308.81	-18.43
309.25	24.58
309.69	12.29
310.14	18.43
310.58	53.25
311.02	112.64
311.47	-30.72
311.91	45.06
312.36	-34.82
312.80	24.58
313.24	40.96
313.69	20.48
314.13	-67.58
314.57	18.43
315.02	-34.82
315.46	-2.05
315.90	24.58
316.35	73.73
316.79	-30.72
317.23	75.77
317.68	88.06
318.12	-20.48
318.56	38.91
319.00	10.24
319.45	-16.38
319.89	51.20
320.33	-36.86
320.78	38.91
321.22	49.15
321.66	-30.72
322.11	16.38
322.55	-18.43
322.99	108.54
323.43	6.14
323.88	-8.19
324.32	14.34
324.76	-59.39
325.21	4.10
325.65	16.38
326.09	-20.48
326.53	-36.86
326.98	-14.34
327.42	10.24
327.86	-2.05
328.30	24.58
328.75	-32.77
329.19	16.38
329.63	-22.53
330.07	-63.49
330.52	12.29
330.96	-14.34
331.40	6.14
331.84	-8.19
332.29	16.38
332.73	-32.77
333.17	-4.10
333.61	28.67
334.05	-4.10
334.50	-6.14
334.94	28.67
335.38	10.24
335.82	40.96
336.27	0.00
336.71	51.20
337.15	16.38
337.59	-32.77
338.03	-51.20
338.47	-40.96
338.92	40.96
339.36	49.15
339.80	-57.34
340.24	34.82
340.68	96.25
341.13	34.82
341.57	-4.10
342.01	-10.24
342.45	79.87
342.89	26.62
343.33	45.06
343.78	55.30
344.22	6.14
344.66	0.00
345.10	8.19
345.54	-18.43
345.98	32.77
346.43	-10.24
346.87	8.19
347.31	45.06
347.75	26.62
348.19	10.24
348.63	-8.19
349.07	-16.38
349.51	81.92
349.96	51.20
350.40	6.14
350.84	38.91
351.28	-34.82
351.72	-49.15
352.16	26.62
352.60	-67.58
353.04	-43.01
353.49	53.25
353.93	45.06
354.37	49.15
354.81	63.49
355.25	-81.92
355.69	-4.10
356.13	88.06
356.57	30.72
357.01	10.24
357.45	24.58
357.89	-55.30
358.33	75.77
358.78	-10.24
359.22	8.19
359.66	-32.77
360.10	-28.67
360.54	-69.63
360.98	34.82
361.42	-18.43
361.86	10.24
362.30	-45.06
362.74	14.34
363.18	57.34
363.62	34.82
364.06	-61.44
364.50	0.00
364.94	110.59
365.38	73.73
365.82	47.10
366.26	-18.43
366.70	-47.10
367.14	-65.53
367.58	43.01
368.02	16.38
368.46	22.53
368.90	-8.19
369.34	18.43
369.78	-36.86
370.22	4.10
370.66	-6.14
371.10	-2.05
371.54	49.15
371.98	-38.91
372.42	49.15
372.86	8.19
373.30	2.05
373.74	4.10
374.18	-14.34
374.62	36.86
375.06	-75.77
375.50	6.14
375.94	38.91
376.38	-22.53
376.82	-22.53
377.26	-2.05
377.70	-73.73
378.14	51.20
378.58	10.24
379.02	12.29
379.46	-69.63
379.90	-26.62
380.34	49.15
380.78	16.38
381.22	22.53
381.66	65.53
382.10	-28.67
382.53	75.77
382.97	98.30
383.41	16.38
383.85	90.11
384.29	-34.82
384.73	-61.44
385.17	30.72
385.61	-36.86
386.05	-6.14
386.49	-16.38
386.93	45.06
387.36	6.14
387.80	40.96
388.24	51.20
388.68	-6.14
389.12	-53.25
389.56	-47.10
390.00	145.41
390.44	-32.77
390.88	-24.58
391.31	-8.19
391.75	55.30
392.19	-34.82
392.63	-18.43
393.07	16.38
393.51	-59.39
393.95	55.30
394.39	-22.53
394.82	34.82
395.26	-14.34
395.70	20.48
396.14	-38.91
396.58	30.72
397.02	-59.39
397.45	-22.53
397.89	-18.43
398.33	83.97
398.77	30.72
399.21	-38.91
399.65	-22.53
400.08	75.77
400.52	34.82
400.96	-49.15
401.40	104.45
401.84	43.01
402.27	14.34
402.71	-55.30
403.15	43.01
403.59	-18.43
404.03	122.88
404.46	38.91
404.90	-49.15
405.34	61.44
405.78	-38.91
406.22	124.93
406.65	0.00
407.09	-26.62
407.53	-20.48
407.97	57.34
408.40	59.39
408.84	67.58
409.28	-38.91
409.72	-40.96
410.16	-53.25
410.59	6.14
411.03	-38.91
411.47	200.70
411.91	34.82
412.34	47.10
412.78	77.82
413.22	137.21
413.66	28.67
414.09	63.49
414.53	102.40
414.97	32.77
415.40	30.72
415.84	63.49
416.28	26.62
416.72	16.38
417.15	28.67
417.59	-26.62
418.03	114.69
418.46	24.58
418.90	81.92
419.34	6.14
419.78	137.21
420.21	20.48
420.65	28.67
421.09	90.11
421.52	57.34
421.96	141.31
422.40	77.82
422.83	75.77
423.27	155.65
423.71	67.58
424.14	75.77
424.58	108.54
425.02	98.30
425.45	102.40
425.89	94.21
426.33	141.31
426.76	96.25
427.20	180.22
427.64	139.26
428.07	79.87
428.51	200.70
428.95	198.65
429.38	131.07
429.82	143.36
430.26	133.12
430.69	172.03
431.13	163.84
431.57	188.41
432.00	174.08
432.44	124.93
432.87	196.61
433.31	143.36
433.75	241.66
434.18	151.55
434.62	131.07
435.05	112.64
435.49	153.60
435.93	270.33
436.36	159.74
436.80	237.56
437.23	196.61
437.67	231.42
438.11	315.39
438.54	313.34
438.98	198.65
439.41	188.41
439.85	266.24
440.29	274.43
440.72	282.62
441.16	270.33
441.59	319.48
442.03	194.56
442.46	282.62
442.90	415.74
443.34	362.49
443.77	339.96
444.21	317.44
444.64	301.05
445.08	374.78
445.51	415.74
445.95	391.16
446.38	333.82
446.82	401.40
447.25	428.03
447.69	358.39
448.13	372.73
448.56	493.56
449.00	432.12
449.43	411.64
449.87	499.70
450.30	610.29
450.74	466.94
451.17	507.90
451.61	583.67
452.04	571.38
452.48	587.77
452.91	581.62
453.35	739.32
453.78	681.97
454.22	714.74
454.65	673.78
455.09	731.12
455.52	770.04
455.96	774.13
456.39	772.08
456.83	821.24
457.26	819.19
457.69	804.85
458.13	927.73
458.56	966.64
459.00	1124.33
459.43	1085.42
459.87	1058.80
460.30	1066.99
460.74	1191.92
461.17	1226.73
461.61	1318.89
462.04	1353.71
462.47	1400.81
462.91	1415.15
463.34	1347.56
463.78	1413.10
464.21	1558.50
464.65	1767.40
465.08	1744.87
465.51	1974.24
465.95	1689.57
466.38	1722.34
466.82	1904.61
467.25	2103.26
467.69	2060.26
468.12	2121.70
468.55	2353.12
468.99	2236.38
469.42	2451.42
469.86	2535.39
470.29	2686.94
470.72	2713.56
471.16	2752.47
471.59	2641.88
472.03	3024.85
472.46	2772.95
472.89	3008.47
473.33	3121.10
473.76	3305.42
474.19	3606.47
474.63	3332.05
475.06	3561.42
475.49	3760.07
475.93	3786.69
476.36	4130.75
476.80	3981.25
477.23	4515.77
477.66	4020.16
478.10	4360.13
478.53	4392.89
478.96	4757.43
479.40	4966.32
479.83	4853.69
480.26	4773.82
480.70	5322.67
481.13	5154.74
481.56	5580.71
482.00	5257.14
482.43	5466.03
482.86	5666.73
483.30	6004.64
483.73	6006.69
484.16	5930.92
484.59	6170.53
485.03	6473.63
485.46	6623.13
485.89	6430.62
486.33	6322.08
486.76	6893.46
487.19	6813.59
487.63	6893.46
488.06	6965.14
488.49	7557.00
488.92	7358.35
489.36	7337.87
489.79	7503.76
490.22	7595.92
490.65	7741.32
491.09	8251.27
491.52	7919.50
491.95	8294.27
492.38	8167.30
492.82	8501.12
493.25	8548.22
493.68	8576.89
494.11	8435.58
494.55	8933.24
494.98	8908.66
495.41	8978.30
495.84	8816.51
496.28	8937.34
496.71	8873.85
497.14	9439.09
497.57	9162.61
498.01	9482.10
498.44	9539.44
498.87	10071.91
499.30	9869.16
499.73	10041.19
500.17	9662.32
500.60	10080.10
501.03	10061.67
501.46	10501.98
501.89	10368.87
502.33	10608.48
502.76	10469.22
503.19	10864.47
503.62	10921.82
504.05	11071.32
504.49	10862.43
504.92	10743.64
505.35	10854.23
505.78	11378.51
506.21	11583.31
506.64	11812.68
507.08	11753.29
507.51	11953.99
507.94	11794.25
508.37	12265.28
508.80	11863.88
509.23	12027.72
509.67	12320.58
510.10	12592.96
510.53	12670.78
510.96	12732.22
511.39	12697.41
511.82	13043.51
512.25	13039.42
512.69	13125.43
513.12	13285.17
513.55	13584.18
513.98	13276.98
514.41	13492.02
514.84	13578.03
515.27	14020.39
515.70	13668.14
516.14	13862.70
516.57	13885.23
517.00	14106.41
517.43	14372.64
517.86	14749.47
518.29	14446.37
518.72	14645.02
519.15	14624.54
519.58	14796.57
520.01	14913.31
520.45	15134.49
520.88	14819.10
521.31	15007.52
521.74	15224.60
522.17	15779.60
522.60	15720.21
523.03	15562.51
523.46	15568.66
523.89	16119.56
524.32	16000.78
524.75	16432.90
525.18	16125.71
525.61	16359.17
526.04	16041.74
526.47	16758.53
526.90	16455.43
527.33	16641.79
527.77	16641.79
528.20	17051.39
528.63	16742.14
529.06	16912.13
529.49	16668.42
529.92	17153.79
530.35	16977.66
530.78	17893.10
531.21	17436.41
531.64	17491.70
532.07	17762.03
532.50	17882.86
532.93	17780.46
533.36	18044.65
533.79	17972.97
534.22	18122.48
534.65	18276.07
535.08	18501.35
535.51	18300.65
535.94	18521.83
536.37	18132.72
536.80	18521.83
537.23	18777.83
537.66	18720.48
538.09	18816.74
538.52	18865.89
538.95	18743.01
539.38	19050.21
539.81	18841.31
540.24	19119.84
540.66	19334.87
541.09	19793.62
541.52	19338.97
541.95	19545.81
542.38	19885.78
542.81	19343.06
543.24	19488.47
543.67	19926.74
544.10	19519.19
544.53	19881.68
544.96	19511.00
545.39	19818.19
545.82	19953.36
546.25	20031.18
546.68	20123.34
547.11	20330.19
547.53	20356.81
547.96	20575.94
548.39	20166.35
548.82	20707.01
549.25	20381.39
549.68	21178.04
550.11	20883.14
550.54	20958.91
550.97	20909.76
551.40	21167.80
551.82	21644.98
552.25	21440.18
552.68	20698.82
553.11	21276.35
553.54	21425.85
553.97	21542.58
554.40	21462.71
554.83	22171.31
555.26	21923.51
555.68	22193.84
556.11	22001.33
556.54	22144.69
556.97	22060.72
557.40	22668.97
557.83	22335.15
558.26	22967.97
558.68	22699.69
559.11	23264.92
559.54	23144.09
559.97	23074.46
560.40	23051.94
560.83	23510.68
561.25	23013.02
561.68	23371.42
562.11	23582.36
562.54	23543.45
562.97	23410.33
563.40	23903.89
563.82	23910.04
564.25	24258.19
564.68	23905.94
565.11	24225.42
565.54	23910.04
565.96	24493.71
566.39	24123.02
566.82	25026.18
567.25	24526.47
567.68	25038.47
568.10	24979.07
568.53	25192.06
568.96	25239.17
569.39	25009.79
569.81	25026.18
570.24	25249.41
570.67	25560.70
571.10	25458.30
571.53	25095.81
571.95	26029.68
572.38	25857.65
572.81	26189.42
573.24	25781.88
573.66	25996.92
574.09	26185.33
574.52	26316.40
574.95	25443.96
575.37	26214.00
575.80	26515.05
576.23	26486.38
576.66	26914.41
577.08	26728.04
577.51	26273.39
577.94	26975.84
578.36	27000.42
578.79	27307.62
579.22	26801.77
579.65	26764.90
580.07	27211.36
580.50	27420.25
580.93	27356.77
581.36	27534.94
581.78	27487.84
582.21	27354.72
582.64	27305.57
583.06	27407.97
583.49	27786.84
583.92	27571.80
584.34	27856.47
584.77	28235.35
585.20	27989.59
585.62	28038.74
586.05	27911.77
586.48	28405.33
586.90	28411.47
587.33	27719.26
587.76	28933.70
588.18	28685.90
588.61	28298.83
589.04	28610.12
589.46	28513.87
589.89	28644.94
590.32	28700.23
590.74	28868.17
591.17	28974.66
591.60	28950.09
592.02	29126.21
592.45	29118.02
592.88	28853.83
593.30	29085.25
593.73	29548.09
594.15	29218.37
594.58	28960.33
595.01	29566.52
595.43	29029.96
595.86	29918.78
596.29	29943.35
596.71	29396.54
597.14	29949.50
597.56	29838.90
597.99	30326.32
598.42	29472.32
598.84	29992.50
599.27	30172.72
599.69	30262.83
600.12	30037.56
600.55	30791.21
600.97	30713.39
601.40	30283.31
601.82	30619.18
602.25	30885.42
602.67	30723.63
603.10	30858.79
603.53	30522.93
603.95	31114.79
604.38	30989.86
604.80	31323.68
605.23	31118.89
605.65	31686.17
606.08	32224.79
606.50	31698.46
606.93	31630.88
607.36	31688.22
607.78	32136.73
608.21	32439.82
608.63	32275.99
609.06	32310.80
609.48	32261.65
609.91	32362.00
610.33	32353.81
610.76	32312.85
611.18	32640.53
611.61	32601.61
612.03	32421.39
612.46	32949.77
612.88	32714.25
613.31	32222.74
613.73	32992.78
614.16	32534.03
614.58	32574.99
615.01	32595.47
615.43	33248.77
615.86	33533.44
616.28	33003.02
616.71	32437.78
617.13	33564.16
617.56	33207.81
617.98	33250.82
618.41	33664.51
618.83	33650.17
619.26	33154.57
619.68	33709.57
620.11	33533.44
620.53	34020.86
620.96	33265.16
621.38	33594.88
621.81	33424.90
622.23	34164.21
622.65	33758.72
623.08	33766.91
623.50	33656.32
623.93	33857.02
624.35	33637.89
624.78	34317.81
625.20	33674.75
625.62	33760.76
626.05	33842.68
626.47	34618.86
626.90	34409.97
627.32	34090.49
627.75	34047.48
628.17	33926.65
628.59	34088.44
629.02	34551.28
629.44	34393.59
629.87	34162.17
630.29	34283.00
630.71	34117.11
631.14	34606.58
631.56	34948.59
631.99	33840.64
632.41	34698.73
632.83	34469.36
633.26	34717.17
633.68	34864.62
634.11	34506.23
634.53	34995.69
634.95	34983.40
635.38	34917.87
635.80	35118.57
636.22	34295.28
636.65	35192.30
637.07	35034.60
637.49	35005.93
637.92	34860.52
638.34	35306.98
638.76	34758.13
639.19	35577.31
639.61	35343.84
640.04	35423.72
640.46	35511.78
640.88	35694.05
641.31	35425.76
641.73	35948.00
642.15	35466.72
642.57	36122.07
643.00	35599.84
643.42	35587.55
643.84	35837.41
644.27	35917.28
644.69	35892.70
645.11	36294.10
645.54	35552.74
645.96	35939.80
646.38	36105.69
646.81	36425.17
647.23	35737.05
647.65	35907.04
648.07	35984.86
648.50	35962.33
648.92	36068.83
649.34	35816.93
649.77	35603.94
650.19	36056.54
650.61	36031.96
651.03	35900.89
651.46	36066.78
651.88	36285.91
652.30	35730.91
652.72	36247.00
653.15	36468.18
653.57	36060.63
653.99	36883.92
654.41	36523.47
654.84	36562.39
655.26	36687.31
655.68	36664.78
656.10	37017.04
656.53	36253.14
656.95	36728.27
657.37	36480.47
657.79	36414.93
658.22	36754.90
658.64	36304.34
659.06	36548.05
659.48	36920.78
659.90	36048.35
660.33	36488.66
660.75	36353.49
661.17	36464.08
661.59	36224.47
662.02	36093.40
662.44	36171.22
662.86	36253.14
663.28	35739.10
663.70	36433.36
664.12	35964.38
664.55	36492.76
664.97	36021.72
665.39	36462.04
665.81	35886.56
666.23	36738.51
666.66	36193.75
667.08	36853.20
667.50	36507.09
667.92	36685.26
668.34	36023.77
668.76	36402.64
669.19	36328.92
669.61	36699.60
670.03	36427.22
670.45	36271.57
670.87	36343.25
671.29	36662.74
671.71	36230.62
672.14	36089.31
672.56	35630.56
672.98	36173.27
673.40	36267.48
673.82	36353.49
674.24	36091.35
674.66	36486.61
675.08	36259.29
675.51	36349.40
675.93	36357.59
676.35	36345.30
676.77	36140.50
677.19	36277.72
677.61	36117.98
678.03	36406.74
678.45	36326.87
678.87	35974.62
679.29	36134.36
679.72	36271.57
680.14	36267.48
680.56	35997.15
680.98	36195.80
681.40	35861.98
681.82	36402.64
682.24	35638.75
682.66	35757.53
683.08	36244.95
683.50	35546.59
683.92	35771.87
684.34	35790.30
684.76	35747.29
685.18	35978.72
685.61	36251.09
686.03	35802.59
686.45	36105.69
686.87	35532.26
687.29	36603.35
687.71	35898.84
688.13	35624.42
688.55	35444.20
688.97	36476.37
689.39	36103.64
689.81	36408.79
690.23	35390.95
690.65	36142.55
691.07	35706.34
691.49	35849.69
691.91	35948.00
692.33	35663.33
692.75	35657.18
693.17	35653.09
693.59	35212.77
694.01	36208.09
694.43	35644.90
694.85	35902.94
695.27	35530.21
695.69	35464.67
696.11	35065.32
696.53	35235.30
696.95	35034.60
697.37	35616.22
697.79	35091.94
698.21	34676.21
698.63	35454.44
699.05	35595.74
699.47	35206.63
699.89	35530.21
700.31	34870.76
700.73	35603.94
701.15	34981.35
701.57	35116.52
701.98	35225.06
702.40	35278.31
702.82	34235.89
703.24	35485.15
703.66	34770.41
704.08	35677.66
704.50	35077.61
704.92	34950.63
705.34	34369.01
705.76	34536.94
706.18	34625.01
706.60	34823.66
707.02	34764.27
707.44	34715.12
707.85	34493.94
708.27	35032.55
708.69	34690.54
709.11	35020.27
709.53	34874.86
709.95	34387.44
710.37	34512.37
710.79	34610.67
711.21	33922.55
711.63	33975.80
712.04	33586.69
712.46	34280.95
712.88	33897.98
713.30	34401.78
713.72	33525.25
714.14	33811.96
714.56	33637.89
714.98	34055.67
715.39	33056.26
715.81	34002.43
716.23	33349.12
716.65	33076.74
717.07	33084.94
717.49	33197.57
717.91	32661.01
718.32	33027.59
718.74	32187.92
719.16	33062.41
719.58	32235.03
720.00	32177.68
720.42	31776.28
720.83	32206.36
721.25	31460.90
721.67	31421.98
722.09	31491.62
722.51	31215.14
722.93	31204.90
723.34	30801.45
723.76	31088.17
724.18	31110.69
724.60	31039.01
725.02	30791.21
725.43	30342.70
725.85	31024.68
726.27	29986.36
726.69	30162.48
727.11	29957.69
727.52	30518.83
727.94	30236.21
728.36	30768.68
728.78	30115.38
729.19	30551.60
729.61	30600.75
730.03	30361.14
730.45	29845.05
730.87	30205.49
731.28	30342.70
731.70	30207.54
732.12	30035.51
732.54	30019.13
732.95	30084.66
733.37	30430.77
733.79	30529.07
734.21	30133.81
734.62	30541.36
735.04	30428.72
735.46	30193.20
735.87	30316.08
736.29	30291.51
736.71	30572.08
737.13	30246.45
737.54	30744.11
737.96	30594.61
738.38	30490.16
738.80	30506.54
739.21	30543.41
739.63	30821.93
740.05	30553.65
740.46	31034.92
740.88	30459.44
741.30	30522.93
741.71	30541.36
742.13	30228.02
742.55	30303.79
742.97	30051.89
743.38	30025.27
743.80	30099.00
744.22	29767.23
744.63	29912.63
745.05	29619.77
745.47	30082.61
745.88	30426.67
746.30	29994.55
746.72	29883.96
747.13	29253.19
747.55	29517.37
747.97	29343.30
748.38	29105.73
748.80	29165.12
749.22	29238.85
749.63	28941.89
750.05	29011.53
750.46	29042.24
750.88	29034.05
751.30	28544.59
751.71	29115.97
752.13	28837.45
752.55	28466.77
752.96	28513.87
753.38	28522.06
753.79	28401.23
754.21	28919.37
754.63	28005.97
755.04	28427.85
755.46	28225.11
755.88	28425.81
756.29	28003.92
756.71	28511.82
757.12	27997.78
757.54	27954.77
757.96	27874.90
758.37	27825.75
758.79	27377.25
759.20	27536.99
759.62	27901.53
760.03	27864.66
760.45	27371.10
760.87	27827.80
761.28	27360.86
761.70	27987.54
762.11	27170.40
762.53	27674.20
762.94	27237.98
763.36	27825.75
763.78	27123.30
764.19	27520.60
764.61	27510.36
765.02	27182.69
765.44	26975.84
765.85	27393.63
766.27	27340.38
766.68	27145.83
767.10	26467.95
767.51	26672.75
767.93	27072.10
768.34	27139.68
768.76	26789.48
769.18	26680.94
769.59	26631.79
770.01	27014.76
770.42	27121.25
770.84	26676.84
771.25	26689.13
771.67	26652.27
772.08	26269.30
772.50	26588.78
772.91	26300.01
773.33	26482.28
773.74	26300.01
774.16	26140.27
774.57	25980.53
774.99	25939.57
775.40	25800.31
775.81	25755.25
776.23	25403.00
776.64	25785.97
777.06	25790.07
777.47	25474.68
777.89	25419.39
778.30	25726.58
778.72	25493.12
779.13	25269.89
779.55	25347.71
779.96	25204.35
780.38	24628.87
780.79	24776.33
781.20	24528.52
781.62	24698.50
782.03	24907.40
782.45	24245.90
782.86	24190.61
783.28	24612.49
783.69	24131.22
784.10	24432.27
784.52	23842.45
784.93	24037.01
785.35	23828.12
785.76	23727.77
786.18	24098.45
786.59	24073.87
787.00	23486.11
787.42	23778.97
787.83	24002.19
788.25	23830.16
788.66	23275.16
789.07	23367.32
789.49	23338.65
789.90	23688.85
790.32	23586.46
790.73	23045.79
791.14	23246.49
791.56	23242.40
791.97	22873.76
792.38	22775.46
792.80	22814.37
793.21	22685.35
793.62	22329.00
794.04	22847.14
794.45	22423.21
794.87	22503.08
795.28	22101.68
795.69	22255.28
796.11	22290.09
796.52	22132.40
796.93	21905.07
797.35	21986.99
797.76	22126.25
798.17	21735.09
798.59	21771.96
799.00	21565.11
799.41	21511.86
799.83	21911.22
800.24	21311.16
800.65	21274.30
801.07	21067.45
801.48	21442.23
801.89	20786.88
802.31	21221.05
802.72	21262.01
803.13	21198.52
803.54	20909.76
803.96	21085.89
804.37	20797.12
804.78	20913.86
805.20	20833.99
805.61	20512.45
806.02	20524.74
806.43	20563.65
806.85	20393.67
807.26	20588.23
807.67	20225.74
808.09	20760.26
808.50	20498.12
808.91	20377.29
809.32	20238.03
809.74	20156.11
810.15	19982.03
810.56	20258.51
810.97	19609.30
811.39	20002.51
811.80	19668.69
812.21	20059.85
812.62	19760.85
813.04	19914.45
813.45	19470.04
813.86	19617.49
814.27	19291.87
814.68	19494.61
815.10	19414.74
815.51	19144.41
815.92	18904.80
816.33	18843.36
816.75	18931.42
817.16	18886.37
817.57	18826.98
817.98	18882.27
818.39	18945.76
818.81	18702.05
819.22	18290.41
819.63	18726.63
820.04	18257.64
820.45	18730.72
820.87	18231.02
821.28	18099.95
821.69	18196.20
822.10	18333.42
822.51	18265.83
822.92	18259.69
823.34	18005.74
823.75	18067.18
824.16	17723.12
824.57	17696.50
824.98	17473.27
825.39	17368.82
825.81	17321.72
826.22	16897.79
826.63	17446.65
827.04	17340.15
827.45	17133.31
827.86	17239.80
828.28	16783.10
828.69	16934.65
829.10	16852.73
829.51	17137.40
829.92	16770.82
830.33	16762.62
830.74	16488.20
831.15	16512.77
831.57	16336.65
831.98	16600.83
832.39	16234.25
832.80	16103.18
833.21	15953.68
833.62	16307.98
834.03	15591.19
834.44	15922.96
834.85	15566.61
835.26	15529.75
835.68	15613.71
836.09	15779.60
836.50	15623.95
836.91	15898.38
837.32	15580.95
837.73	15425.30
838.14	15200.02
